function [t,s,h]=R134aisop_044497
data=[
169.85	0.44497	15.599	0.064105	71.376	71.656	0.41215	0.79234	1.1835	1121.6	-0.38177	0.0021696	0.14538	
170.33	0.44497	15.587	0.064156	71.938	72.218	0.41546	0.79215	1.1835	1119.2	-0.38148	0.0021257	0.14509	
170.80	0.44497	15.575	0.064206	72.501	72.781	0.41876	0.79197	1.1835	1116.8	-0.38118	0.0020834	0.14480	
171.28	0.44497	15.563	0.064257	73.063	73.343	0.42205	0.79181	1.1836	1114.4	-0.38087	0.0020427	0.14451	
171.75	0.44497	15.550	0.064307	73.625	73.906	0.42533	0.79167	1.1836	1112.0	-0.38056	0.0020033	0.14422	
172.23	0.44497	15.538	0.064358	74.188	74.468	0.42860	0.79154	1.1837	1109.5	-0.38024	0.0019653	0.14393	
172.70	0.44497	15.526	0.064409	74.750	75.031	0.43186	0.79143	1.1838	1107.1	-0.37991	0.0019286	0.14364	
173.18	0.44497	15.513	0.064460	75.312	75.593	0.43511	0.79133	1.1839	1104.7	-0.37958	0.0018931	0.14335	
173.65	0.44497	15.501	0.064511	75.875	76.156	0.43836	0.79125	1.1840	1102.3	-0.37924	0.0018588	0.14306	
174.13	0.44497	15.489	0.064562	76.437	76.719	0.44159	0.79118	1.1841	1099.9	-0.37889	0.0018255	0.14278	
174.60	0.44497	15.477	0.064614	77.000	77.282	0.44482	0.79112	1.1843	1097.5	-0.37854	0.0017933	0.14249	
175.08	0.44497	15.464	0.064665	77.563	77.845	0.44804	0.79108	1.1844	1095.1	-0.37818	0.0017621	0.14220	
175.55	0.44497	15.452	0.064717	78.125	78.408	0.45125	0.79105	1.1846	1092.7	-0.37781	0.0017319	0.14192	
176.03	0.44497	15.440	0.064768	78.688	78.971	0.45446	0.79104	1.1848	1090.2	-0.37744	0.0017025	0.14163	
176.50	0.44497	15.427	0.064820	79.251	79.534	0.45765	0.79103	1.1850	1087.8	-0.37706	0.0016740	0.14135	
176.98	0.44497	15.415	0.064872	79.814	80.097	0.46084	0.79104	1.1852	1085.4	-0.37667	0.0016464	0.14106	
177.45	0.44497	15.403	0.064924	80.377	80.660	0.46402	0.79107	1.1854	1083.0	-0.37628	0.0016195	0.14078	
177.93	0.44497	15.390	0.064976	80.940	81.224	0.46719	0.79110	1.1856	1080.6	-0.37589	0.0015934	0.14049	
178.40	0.44497	15.378	0.065028	81.504	81.787	0.47035	0.79114	1.1859	1078.2	-0.37548	0.0015680	0.14021	
178.88	0.44497	15.366	0.065080	82.067	82.351	0.47350	0.79120	1.1861	1075.8	-0.37508	0.0015433	0.13993	
179.35	0.44497	15.353	0.065133	82.631	82.915	0.47665	0.79127	1.1864	1073.3	-0.37466	0.0015193	0.13965	
179.83	0.44497	15.341	0.065185	83.194	83.478	0.47979	0.79134	1.1867	1070.9	-0.37424	0.0014959	0.13937	
180.31	0.44497	15.329	0.065238	83.758	84.042	0.48292	0.79143	1.1869	1068.5	-0.37382	0.0014731	0.13909	
180.78	0.44497	15.316	0.065290	84.322	84.607	0.48605	0.79153	1.1872	1066.1	-0.37339	0.0014509	0.13881	
181.26	0.44497	15.304	0.065343	84.886	85.171	0.48917	0.79164	1.1875	1063.7	-0.37295	0.0014293	0.13853	
181.73	0.44497	15.291	0.065396	85.450	85.735	0.49228	0.79175	1.1878	1061.3	-0.37251	0.0014083	0.13825	
182.21	0.44497	15.279	0.065449	86.015	86.300	0.49538	0.79188	1.1882	1058.9	-0.37206	0.0013877	0.13797	
182.68	0.44497	15.267	0.065502	86.579	86.865	0.49847	0.79202	1.1885	1056.5	-0.37161	0.0013677	0.13769	
183.16	0.44497	15.254	0.065555	87.144	87.430	0.50156	0.79216	1.1888	1054.1	-0.37115	0.0013482	0.13741	
183.63	0.44497	15.242	0.065609	87.709	87.995	0.50464	0.79231	1.1892	1051.7	-0.37069	0.0013291	0.13714	
184.11	0.44497	15.229	0.065662	88.274	88.560	0.50772	0.79248	1.1895	1049.2	-0.37022	0.0013105	0.13686	
184.58	0.44497	15.217	0.065716	88.839	89.125	0.51078	0.79265	1.1899	1046.8	-0.36975	0.0012923	0.13658	
185.06	0.44497	15.205	0.065770	89.404	89.691	0.51384	0.79282	1.1902	1044.4	-0.36927	0.0012745	0.13631	
185.53	0.44497	15.192	0.065823	89.970	90.257	0.51690	0.79301	1.1906	1042.0	-0.36879	0.0012572	0.13603	
186.01	0.44497	15.180	0.065877	90.535	90.823	0.51994	0.79321	1.1910	1039.6	-0.36830	0.0012402	0.13576	
186.48	0.44497	15.167	0.065931	91.101	91.389	0.52298	0.79341	1.1914	1037.2	-0.36781	0.0012237	0.13549	
186.96	0.44497	15.155	0.065985	91.667	91.955	0.52602	0.79362	1.1918	1034.8	-0.36731	0.0012075	0.13521	
187.43	0.44497	15.142	0.066040	92.233	92.521	0.52904	0.79383	1.1922	1032.4	-0.36681	0.0011916	0.13494	
187.91	0.44497	15.130	0.066094	92.800	93.088	0.53206	0.79406	1.1926	1030.0	-0.36630	0.0011761	0.13467	
188.38	0.44497	15.118	0.066148	93.367	93.655	0.53508	0.79429	1.1930	1027.6	-0.36579	0.0011610	0.13440	
188.86	0.44497	15.105	0.066203	93.933	94.222	0.53808	0.79452	1.1935	1025.3	-0.36527	0.0011461	0.13413	
189.34	0.44497	15.093	0.066258	94.501	94.789	0.54108	0.79477	1.1939	1022.9	-0.36475	0.0011316	0.13386	
189.81	0.44497	15.080	0.066313	95.068	95.357	0.54408	0.79502	1.1944	1020.5	-0.36422	0.0011174	0.13359	
190.29	0.44497	15.068	0.066368	95.635	95.925	0.54706	0.79527	1.1948	1018.1	-0.36369	0.0011035	0.13332	
190.76	0.44497	15.055	0.066423	96.203	96.493	0.55004	0.79554	1.1953	1015.7	-0.36315	0.0010898	0.13305	
191.24	0.44497	15.043	0.066478	96.771	97.061	0.55302	0.79580	1.1957	1013.3	-0.36261	0.0010765	0.13278	
191.71	0.44497	15.030	0.066533	97.339	97.629	0.55599	0.79608	1.1962	1010.9	-0.36206	0.0010634	0.13251	
192.19	0.44497	15.018	0.066589	97.907	98.198	0.55895	0.79636	1.1967	1008.5	-0.36151	0.0010505	0.13224	
192.66	0.44497	15.005	0.066644	98.476	98.767	0.56191	0.79664	1.1971	1006.2	-0.36096	0.0010380	0.13197	
193.14	0.44497	14.993	0.066700	99.045	99.336	0.56486	0.79694	1.1976	1003.8	-0.36040	0.0010256	0.13171	
193.61	0.44497	14.980	0.066756	99.614	99.905	0.56780	0.79723	1.1981	1001.4	-0.35983	0.0010136	0.13144	
194.09	0.44497	14.967	0.066812	100.18	100.47	0.57074	0.79753	1.1986	999.02	-0.35927	0.0010017	0.13118	
194.56	0.44497	14.955	0.066868	100.75	101.04	0.57367	0.79784	1.1991	996.64	-0.35869	0.00099008	0.13091	
195.04	0.44497	14.942	0.066924	101.32	101.61	0.57660	0.79815	1.1996	994.27	-0.35811	0.00097868	0.13065	
195.51	0.44497	14.930	0.066980	101.89	102.18	0.57952	0.79847	1.2001	991.90	-0.35753	0.00096749	0.13038	
195.99	0.44497	14.917	0.067037	102.46	102.75	0.58243	0.79879	1.2007	989.53	-0.35694	0.00095650	0.13012	
196.46	0.44497	14.905	0.067093	103.03	103.33	0.58534	0.79912	1.2012	987.16	-0.35635	0.00094572	0.12985	
196.94	0.44497	14.892	0.067150	103.60	103.90	0.58824	0.79945	1.2017	984.79	-0.35575	0.00093514	0.12959	
197.41	0.44497	14.879	0.067207	104.17	104.47	0.59114	0.79978	1.2022	982.43	-0.35515	0.00092475	0.12933	
197.89	0.44497	14.867	0.067264	104.75	105.04	0.59403	0.80012	1.2028	980.06	-0.35455	0.00091455	0.12907	
198.36	0.44497	14.854	0.067321	105.32	105.61	0.59692	0.80046	1.2033	977.70	-0.35394	0.00090453	0.12880	
198.84	0.44497	14.842	0.067378	105.89	106.18	0.59980	0.80081	1.2039	975.34	-0.35332	0.00089469	0.12854	
199.32	0.44497	14.829	0.067436	106.46	106.76	0.60267	0.80116	1.2044	972.98	-0.35270	0.00088502	0.12828	
199.79	0.44497	14.816	0.067493	107.03	107.33	0.60554	0.80152	1.2050	970.63	-0.35208	0.00087552	0.12802	
200.27	0.44497	14.804	0.067551	107.61	107.90	0.60840	0.80188	1.2055	968.27	-0.35145	0.00086619	0.12776	
200.74	0.44497	14.791	0.067609	108.18	108.47	0.61126	0.80224	1.2061	965.92	-0.35081	0.00085702	0.12750	
201.22	0.44497	14.778	0.067667	108.75	109.05	0.61411	0.80261	1.2067	963.57	-0.35018	0.00084800	0.12724	
201.69	0.44497	14.766	0.067725	109.33	109.62	0.61696	0.80298	1.2073	961.22	-0.34953	0.00083914	0.12698	
202.17	0.44497	14.753	0.067783	109.90	110.19	0.61980	0.80335	1.2078	958.87	-0.34888	0.00083042	0.12673	
202.64	0.44497	14.740	0.067841	110.47	110.77	0.62264	0.80373	1.2084	956.52	-0.34823	0.00082185	0.12647	
203.12	0.44497	14.728	0.067900	111.05	111.34	0.62547	0.80411	1.2090	954.18	-0.34758	0.00081342	0.12621	
203.59	0.44497	14.715	0.067958	111.62	111.92	0.62830	0.80450	1.2096	951.84	-0.34691	0.00080514	0.12595	
204.07	0.44497	14.702	0.068017	112.20	112.49	0.63112	0.80489	1.2102	949.50	-0.34625	0.00079698	0.12570	
204.54	0.44497	14.689	0.068076	112.77	113.07	0.63393	0.80528	1.2108	947.16	-0.34558	0.00078896	0.12544	
205.02	0.44497	14.677	0.068135	113.35	113.64	0.63675	0.80567	1.2114	944.82	-0.34490	0.00078107	0.12519	
205.49	0.44497	14.664	0.068194	113.92	114.22	0.63955	0.80607	1.2120	942.49	-0.34422	0.00077331	0.12493	
205.97	0.44497	14.651	0.068253	114.50	114.80	0.64235	0.80647	1.2126	940.15	-0.34353	0.00076567	0.12468	
206.44	0.44497	14.639	0.068313	115.07	115.37	0.64515	0.80687	1.2133	937.82	-0.34284	0.00075814	0.12442	
206.92	0.44497	14.626	0.068373	115.65	115.95	0.64794	0.80728	1.2139	935.49	-0.34215	0.00075074	0.12417	
207.39	0.44497	14.613	0.068432	116.23	116.53	0.65072	0.80769	1.2145	933.16	-0.34145	0.00074345	0.12392	
207.87	0.44497	14.600	0.068492	116.80	117.10	0.65350	0.80810	1.2151	930.84	-0.34074	0.00073628	0.12366	
208.35	0.44497	14.587	0.068552	117.38	117.68	0.65628	0.80851	1.2158	928.51	-0.34004	0.00072921	0.12341	
208.82	0.44497	14.575	0.068613	117.96	118.26	0.65905	0.80893	1.2164	926.19	-0.33932	0.00072226	0.12316	
209.30	0.44497	14.562	0.068673	118.54	118.84	0.66182	0.80935	1.2170	923.87	-0.33860	0.00071540	0.12291	
209.77	0.44497	14.549	0.068734	119.12	119.42	0.66458	0.80977	1.2177	921.55	-0.33788	0.00070865	0.12265	
210.25	0.44497	14.536	0.068794	119.69	119.99	0.66733	0.81020	1.2183	919.23	-0.33715	0.00070201	0.12240	
210.72	0.44497	14.523	0.068855	120.27	120.57	0.67009	0.81062	1.2190	916.92	-0.33641	0.00069546	0.12215	
211.20	0.44497	14.510	0.068916	120.85	121.15	0.67283	0.81105	1.2196	914.61	-0.33567	0.00068900	0.12190	
211.67	0.44497	14.498	0.068977	121.43	121.73	0.67557	0.81149	1.2203	912.29	-0.33493	0.00068265	0.12165	
212.15	0.44497	14.485	0.069039	122.01	122.31	0.67831	0.81192	1.2210	909.98	-0.33418	0.00067638	0.12140	
212.62	0.44497	14.472	0.069100	122.59	122.89	0.68105	0.81236	1.2216	907.68	-0.33342	0.00067021	0.12116	
213.10	0.44497	14.459	0.069162	123.17	123.47	0.68377	0.81280	1.2223	905.37	-0.33267	0.00066412	0.12091	
213.57	0.44497	14.446	0.069223	123.75	124.06	0.68650	0.81324	1.2230	903.06	-0.33190	0.00065812	0.12066	
214.05	0.44497	14.433	0.069285	124.33	124.64	0.68922	0.81368	1.2237	900.76	-0.33113	0.00065221	0.12041	
214.52	0.44497	14.420	0.069348	124.92	125.22	0.69193	0.81413	1.2243	898.46	-0.33035	0.00064638	0.12016	
215.00	0.44497	14.407	0.069410	125.50	125.80	0.69464	0.81457	1.2250	896.16	-0.32957	0.00064063	0.11992	
215.47	0.44497	14.394	0.069472	126.08	126.38	0.69735	0.81502	1.2257	893.86	-0.32879	0.00063496	0.11967	
215.95	0.44497	14.381	0.069535	126.66	126.97	0.70005	0.81547	1.2264	891.57	-0.32800	0.00062937	0.11943	
216.42	0.44497	14.368	0.069598	127.25	127.55	0.70274	0.81593	1.2271	889.27	-0.32720	0.00062386	0.11918	
216.90	0.44497	14.355	0.069661	127.83	128.13	0.70544	0.81638	1.2278	886.98	-0.32640	0.00061842	0.11893	
217.37	0.44497	14.342	0.069724	128.41	128.72	0.70813	0.81684	1.2285	884.69	-0.32559	0.00061306	0.11869	
217.85	0.44497	14.329	0.069787	129.00	129.30	0.71081	0.81730	1.2292	882.40	-0.32477	0.00060777	0.11845	
218.33	0.44497	14.316	0.069851	129.58	129.88	0.71349	0.81776	1.2299	880.11	-0.32395	0.00060255	0.11820	
218.80	0.44497	14.303	0.069914	130.16	130.47	0.71616	0.81822	1.2306	877.82	-0.32313	0.00059740	0.11796	
219.28	0.44497	14.290	0.069978	130.75	131.05	0.71883	0.81869	1.2313	875.54	-0.32230	0.00059232	0.11771	
219.75	0.44497	14.277	0.070042	131.33	131.64	0.72150	0.81915	1.2321	873.26	-0.32146	0.00058730	0.11747	
220.23	0.44497	14.264	0.070106	131.92	132.22	0.72416	0.81962	1.2328	870.98	-0.32062	0.00058235	0.11723	
220.70	0.44497	14.251	0.070171	132.50	132.81	0.72682	0.82009	1.2335	868.70	-0.31977	0.00057747	0.11699	
221.18	0.44497	14.238	0.070235	133.09	133.40	0.72948	0.82056	1.2342	866.42	-0.31892	0.00057265	0.11674	
221.65	0.44497	14.225	0.070300	133.68	133.98	0.73213	0.82103	1.2350	864.14	-0.31806	0.00056789	0.11650	
222.13	0.44497	14.212	0.070365	134.26	134.57	0.73477	0.82151	1.2357	861.87	-0.31719	0.00056319	0.11626	
222.60	0.44497	14.199	0.070430	134.85	135.16	0.73741	0.82198	1.2364	859.59	-0.31632	0.00055855	0.11602	
223.08	0.44497	14.185	0.070495	135.44	135.75	0.74005	0.82246	1.2372	857.32	-0.31544	0.00055397	0.11578	
223.55	0.44497	14.172	0.070560	136.03	136.33	0.74269	0.82294	1.2379	855.05	-0.31456	0.00054945	0.11554	
224.03	0.44497	14.159	0.070626	136.62	136.92	0.74531	0.82342	1.2387	852.78	-0.31367	0.00054499	0.11530	
224.50	0.44497	14.146	0.070692	137.20	137.51	0.74794	0.82390	1.2394	850.52	-0.31277	0.00054058	0.11506	
224.98	0.44497	14.133	0.070758	137.79	138.10	0.75056	0.82438	1.2402	848.25	-0.31187	0.00053623	0.11482	
225.45	0.44497	14.119	0.070824	138.38	138.69	0.75318	0.82487	1.2410	845.98	-0.31096	0.00053192	0.11459	
225.93	0.44497	14.106	0.070890	138.97	139.28	0.75579	0.82535	1.2417	843.72	-0.31005	0.00052768	0.11435	
226.40	0.44497	14.093	0.070957	139.56	139.87	0.75840	0.82584	1.2425	841.46	-0.30913	0.00052348	0.11411	
226.88	0.44497	14.080	0.071024	140.15	140.46	0.76101	0.82633	1.2433	839.20	-0.30820	0.00051933	0.11387	
227.36	0.44497	14.067	0.071091	140.74	141.05	0.76361	0.82682	1.2440	836.94	-0.30726	0.00051524	0.11363	
227.83	0.44497	14.053	0.071158	141.33	141.64	0.76621	0.82731	1.2448	834.68	-0.30632	0.00051119	0.11340	
228.31	0.44497	14.040	0.071225	141.93	142.24	0.76881	0.82781	1.2456	832.43	-0.30537	0.00050719	0.11316	
228.78	0.44497	14.027	0.071293	142.52	142.83	0.77140	0.82830	1.2464	830.17	-0.30442	0.00050324	0.11293	
229.26	0.44497	14.013	0.071361	143.11	143.42	0.77398	0.82880	1.2472	827.92	-0.30346	0.00049934	0.11269	
229.73	0.44497	14.000	0.071429	143.70	144.01	0.77657	0.82929	1.2480	825.67	-0.30249	0.00049548	0.11245	
230.21	0.44497	13.987	0.071497	144.30	144.61	0.77915	0.82979	1.2488	823.42	-0.30151	0.00049167	0.11222	
230.68	0.44497	13.973	0.071565	144.89	145.20	0.78172	0.83029	1.2496	821.17	-0.30053	0.00048790	0.11198	
231.16	0.44497	13.960	0.071634	145.48	145.79	0.78430	0.83079	1.2504	818.92	-0.29954	0.00048417	0.11175	
231.63	0.44497	13.946	0.071703	146.08	146.39	0.78687	0.83129	1.2512	816.67	-0.29854	0.00048049	0.11152	
232.11	0.44497	13.933	0.071772	146.67	146.98	0.78943	0.83179	1.2520	814.43	-0.29753	0.00047685	0.11128	
232.58	0.44497	13.920	0.071841	147.27	147.58	0.79199	0.83230	1.2528	812.18	-0.29652	0.00047325	0.11105	
233.06	0.44497	13.906	0.071910	147.86	148.17	0.79455	0.83280	1.2536	809.94	-0.29550	0.00046969	0.11082	
233.53	0.44497	13.893	0.071980	148.46	148.77	0.79710	0.83331	1.2544	807.70	-0.29448	0.00046617	0.11058	
234.01	0.44497	13.879	0.072050	149.05	149.37	0.79966	0.83382	1.2553	805.46	-0.29344	0.00046269	0.11035	
234.48	0.44497	13.866	0.072120	149.65	149.96	0.80220	0.83433	1.2561	803.22	-0.29240	0.00045924	0.11012	
234.96	0.44497	13.852	0.072190	150.25	150.56	0.80475	0.83484	1.2569	800.98	-0.29135	0.00045584	0.10989	
235.43	0.44497	13.839	0.072261	150.84	151.16	0.80729	0.83535	1.2578	798.74	-0.29029	0.00045247	0.10966	
235.91	0.44497	13.825	0.072332	151.44	151.76	0.80983	0.83586	1.2586	796.51	-0.28923	0.00044914	0.10942	
236.38	0.44497	13.812	0.072403	152.04	152.35	0.81236	0.83637	1.2594	794.27	-0.28815	0.00044585	0.10919	
236.86	0.44497	13.798	0.072474	152.64	152.95	0.81489	0.83689	1.2603	792.04	-0.28707	0.00044259	0.10896	
237.34	0.44497	13.784	0.072545	153.24	153.55	0.81742	0.83740	1.2611	789.80	-0.28598	0.00043937	0.10873	
237.81	0.44497	13.771	0.072617	153.84	154.15	0.81994	0.83792	1.2620	787.57	-0.28488	0.00043618	0.10850	
238.29	0.44497	13.757	0.072689	154.44	154.75	0.82246	0.83844	1.2629	785.34	-0.28377	0.00043303	0.10827	
238.76	0.44497	13.744	0.072761	155.04	155.35	0.82498	0.83895	1.2637	783.11	-0.28266	0.00042991	0.10804	
239.24	0.44497	13.730	0.072834	155.64	155.95	0.82749	0.83947	1.2646	780.88	-0.28153	0.00042682	0.10781	
239.71	0.44497	13.716	0.072906	156.24	156.55	0.83000	0.83999	1.2655	778.66	-0.28040	0.00042376	0.10759	
240.19	0.44497	13.703	0.072979	156.84	157.16	0.83251	0.84052	1.2663	776.43	-0.27926	0.00042074	0.10736	
240.66	0.44497	13.689	0.073052	157.44	157.76	0.83501	0.84104	1.2672	774.20	-0.27811	0.00041775	0.10713	
241.14	0.44497	13.675	0.073126	158.04	158.36	0.83751	0.84156	1.2681	771.98	-0.27695	0.00041478	0.10690	
241.61	0.44497	13.661	0.073199	158.64	158.96	0.84001	0.84209	1.2690	769.75	-0.27578	0.00041185	0.10667	
242.09	0.44497	13.648	0.073273	159.25	159.57	0.84251	0.84261	1.2699	767.53	-0.27461	0.00040895	0.10645	
242.56	0.44497	13.634	0.073347	159.85	160.17	0.84500	0.84314	1.2708	765.31	-0.27342	0.00040608	0.10622	
243.04	0.44497	13.620	0.073422	160.45	160.77	0.84749	0.84367	1.2717	763.08	-0.27222	0.00040324	0.10599	
243.51	0.44497	13.606	0.073496	161.06	161.38	0.84997	0.84419	1.2726	760.86	-0.27102	0.00040042	0.10577	
243.99	0.44497	13.592	0.073571	161.66	161.98	0.85245	0.84472	1.2735	758.64	-0.26980	0.00039763	0.10554	
244.46	0.44497	13.578	0.073646	162.27	162.59	0.85493	0.84525	1.2744	756.42	-0.26858	0.00039488	0.10531	
244.94	0.44497	13.565	0.073722	162.87	163.20	0.85741	0.84579	1.2753	754.21	-0.26734	0.00039214	0.10509	
245.41	0.44497	13.551	0.073797	163.48	163.80	0.85988	0.84632	1.2763	751.99	-0.26610	0.00038944	0.10486	
245.89	0.44497	13.537	0.073873	164.09	164.41	0.86235	0.84685	1.2772	749.77	-0.26484	0.00038676	0.10464	
246.37	0.44497	13.523	0.073950	164.69	165.02	0.86482	0.84739	1.2781	747.55	-0.26358	0.00038411	0.10441	
246.84	0.44497	13.509	0.074026	165.30	165.62	0.86728	0.84792	1.2791	745.34	-0.26230	0.00038148	0.10419	
247.32	0.44497	13.495	0.074103	165.91	166.23	0.86974	0.84846	1.2800	743.12	-0.26102	0.00037888	0.10397	
247.79	0.44497	13.481	0.074180	166.52	166.84	0.87220	0.84899	1.2810	740.91	-0.25972	0.00037630	0.10374	
248.27	0.44497	13.467	0.074257	167.13	167.45	0.87466	0.84953	1.2819	738.69	-0.25842	0.00037375	0.10352	
248.74	0.44497	13.453	0.074335	167.73	168.06	0.87711	0.85007	1.2829	736.48	-0.25710	0.00037123	0.10329	
249.22	0.44497	13.439	0.074413	168.34	168.67	0.87956	0.85061	1.2838	734.27	-0.25577	0.00036872	0.10307	
249.69	0.44497	13.424	0.074491	168.95	169.28	0.88201	0.85115	1.2848	732.05	-0.25443	0.00036624	0.10285	
250.17	0.44497	13.410	0.074569	169.56	169.89	0.88445	0.85170	1.2858	729.84	-0.25308	0.00036378	0.10263	
250.64	0.44497	13.396	0.074648	170.18	170.50	0.88689	0.85224	1.2867	727.63	-0.25172	0.00036135	0.10240	
251.12	0.44497	13.382	0.074727	170.79	171.11	0.88933	0.85278	1.2877	725.42	-0.25034	0.00035894	0.10218	
251.59	0.44497	13.368	0.074806	171.40	171.72	0.89177	0.85333	1.2887	723.21	-0.24896	0.00035655	0.10196	
252.07	0.44497	13.354	0.074886	172.01	172.34	0.89420	0.85387	1.2897	721.00	-0.24756	0.00035418	0.10174	
252.54	0.44497	13.339	0.074966	172.62	172.95	0.89663	0.85442	1.2907	718.79	-0.24615	0.00035184	0.10152	
253.02	0.44497	13.325	0.075046	173.24	173.56	0.89906	0.85497	1.2917	716.58	-0.24473	0.00034951	0.10129	
253.49	0.44497	13.311	0.075127	173.85	174.18	0.90148	0.85552	1.2927	714.37	-0.24330	0.00034721	0.10107	
253.97	0.44497	13.297	0.075207	174.47	174.79	0.90390	0.85606	1.2937	712.16	-0.24185	0.00034492	0.10085	
254.44	0.44497	13.282	0.075289	175.08	175.41	0.90632	0.85662	1.2948	709.95	-0.24039	0.00034266	0.10063	
254.92	0.44497	13.268	0.075370	175.70	176.02	0.90874	0.85717	1.2958	707.74	-0.23892	0.00034042	0.10041	
255.39	0.44497	13.253	0.075452	176.31	176.64	0.91115	0.85772	1.2968	705.53	-0.23744	0.00033820	0.10019	
255.87	0.44497	13.239	0.075534	176.93	177.26	0.91357	0.85827	1.2978	703.33	-0.23594	0.00033599	0.099972	
256.35	0.44497	13.225	0.075616	177.54	177.87	0.91598	0.85883	1.2989	701.12	-0.23443	0.00033381	0.099752	
256.82	0.44497	13.210	0.075699	178.16	178.49	0.91838	0.85938	1.2999	698.91	-0.23291	0.00033164	0.099533	
257.30	0.44497	13.196	0.075782	178.78	179.11	0.92079	0.85994	1.3010	696.70	-0.23137	0.00032950	0.099314	
257.77	0.44497	13.181	0.075866	179.40	179.73	0.92319	0.86049	1.3021	694.50	-0.22982	0.00032737	0.099095	
258.25	0.44497	13.167	0.075949	180.02	180.35	0.92559	0.86105	1.3031	692.29	-0.22825	0.00032526	0.098876	
258.72	0.44497	13.152	0.076033	180.63	180.97	0.92799	0.86161	1.3042	690.08	-0.22667	0.00032317	0.098657	
259.20	0.44497	13.138	0.076118	181.25	181.59	0.93038	0.86217	1.3053	687.87	-0.22508	0.00032109	0.098439	
259.67	0.44497	13.123	0.076203	181.87	182.21	0.93277	0.86273	1.3064	685.67	-0.22347	0.00031904	0.098221	
260.15	0.44497	13.108	0.076288	182.50	182.83	0.93516	0.86329	1.3075	683.46	-0.22185	0.00031700	0.098003	
260.62	0.44497	13.094	0.076373	183.12	183.45	0.93755	0.86386	1.3086	681.25	-0.22021	0.00031498	0.097785	
261.10	0.44497	13.079	0.076459	183.74	184.07	0.93993	0.86442	1.3097	679.04	-0.21855	0.00031297	0.097568	
261.57	0.44497	13.064	0.076545	184.36	184.69	0.94232	0.86499	1.3108	676.84	-0.21688	0.00031098	0.097350	
262.05	0.44497	13.049	0.076632	184.98	185.32	0.94470	0.86555	1.3119	674.63	-0.21520	0.00030901	0.097133	
262.52	0.44497	13.035	0.076719	185.61	185.94	0.94707	0.86612	1.3130	672.42	-0.21350	0.00030705	0.096916	
263.00	0.44497	13.020	0.076806	186.23	186.57	0.94945	0.86669	1.3141	670.21	-0.21178	0.00030511	0.096699	
263.47	0.44497	13.005	0.076894	186.86	187.19	0.95182	0.86726	1.3153	668.01	-0.21005	0.00030319	0.096483	
263.95	0.44497	12.990	0.076982	187.48	187.82	0.95420	0.86782	1.3164	665.80	-0.20830	0.00030128	0.096266	
264.42	0.44497	12.975	0.077070	188.11	188.44	0.95656	0.86840	1.3176	663.59	-0.20654	0.00029938	0.096050	
264.90	0.44497	12.960	0.077159	188.73	189.07	0.95893	0.86897	1.3187	661.38	-0.20475	0.00029750	0.095834	
265.38	0.44497	12.945	0.077248	189.36	189.70	0.96130	0.86954	1.3199	659.17	-0.20295	0.00029564	0.095618	
265.85	0.44497	12.930	0.077338	189.99	190.32	0.96366	0.87011	1.3211	656.96	-0.20113	0.00029379	0.095402	
266.33	0.44497	12.915	0.077428	190.61	190.95	0.96602	0.87069	1.3223	654.75	-0.19930	0.00029195	0.095187	
266.80	0.44497	12.900	0.077518	191.24	191.58	0.96838	0.87126	1.3235	652.54	-0.19745	0.00029013	0.094972	
267.28	0.44497	12.885	0.077609	191.87	192.21	0.97074	0.87184	1.3247	650.33	-0.19557	0.00028833	0.094756	
267.75	0.44497	12.870	0.077700	192.50	192.84	0.97309	0.87242	1.3259	648.12	-0.19368	0.00028653	0.094541	
268.23	0.44497	12.855	0.077792	193.13	193.47	0.97544	0.87300	1.3271	645.90	-0.19177	0.00028476	0.094326	
268.70	0.44497	12.840	0.077884	193.76	194.10	0.97779	0.87358	1.3283	643.69	-0.18985	0.00028299	0.094111	
269.18	0.44497	12.824	0.077976	194.39	194.73	0.98014	0.87416	1.3296	641.48	-0.18790	0.00028124	0.093897	
269.65	0.44497	12.809	0.078069	195.02	195.36	0.98249	0.87474	1.3308	639.26	-0.18593	0.00027950	0.093682	
270.13	0.44497	12.794	0.078162	195.66	196.00	0.98483	0.87532	1.3320	637.05	-0.18394	0.00027777	0.093468	
270.60	0.44497	12.779	0.078256	196.29	196.63	0.98717	0.87591	1.3333	634.84	-0.18194	0.00027606	0.093254	
271.08	0.44497	12.763	0.078350	196.92	197.26	0.98951	0.87649	1.3346	632.62	-0.17991	0.00027436	0.093040	
271.55	0.44497	12.748	0.078445	197.56	197.90	0.99185	0.87708	1.3358	630.40	-0.17786	0.00027267	0.092826	
272.03	0.44497	12.732	0.078540	198.19	198.53	0.99419	0.87767	1.3371	628.19	-0.17579	0.00027100	0.092612	
272.50	0.44497	12.717	0.078636	198.83	199.17	0.99653	0.87826	1.3384	625.97	-0.17370	0.00026933	0.092398	
272.98	0.44497	12.701	0.078732	199.46	199.81	0.99886	0.87885	1.3397	623.75	-0.17158	0.00026768	0.092185	
273.45	0.44497	12.686	0.078828	200.10	200.44	1.0012	0.87944	1.3410	621.53	-0.16945	0.00026604	0.091971	
273.93	0.44497	12.670	0.078925	200.74	201.08	1.0035	0.88003	1.3424	619.31	-0.16729	0.00026442	0.091758	
274.40	0.44497	12.655	0.079023	201.37	201.72	1.0058	0.88062	1.3437	617.09	-0.16510	0.00026280	0.091545	
274.88	0.44497	12.639	0.079120	202.01	202.36	1.0082	0.88122	1.3450	614.86	-0.16290	0.00026120	0.091332	
275.36	0.44497	12.623	0.079219	202.65	203.00	1.0105	0.88181	1.3464	612.64	-0.16067	0.00025960	0.091119	
275.83	0.44497	12.608	0.079318	203.29	203.64	1.0128	0.88241	1.3477	610.41	-0.15842	0.00025802	0.090906	
276.31	0.44497	12.592	0.079417	203.93	204.28	1.0151	0.88301	1.3491	608.19	-0.15614	0.00025645	0.090693	
276.78	0.44497	12.576	0.079517	204.57	204.92	1.0175	0.88361	1.3505	605.96	-0.15384	0.00025489	0.090481	
277.26	0.44497	12.560	0.079617	205.21	205.56	1.0198	0.88421	1.3519	603.73	-0.15151	0.00025334	0.090268	
277.73	0.44497	12.544	0.079718	205.86	206.20	1.0221	0.88481	1.3533	601.50	-0.14916	0.00025181	0.090056	
278.21	0.44497	12.528	0.079820	206.50	206.85	1.0244	0.88541	1.3547	599.27	-0.14678	0.00025028	0.089843	
278.68	0.44497	12.512	0.079922	207.14	207.49	1.0267	0.88602	1.3561	597.04	-0.14437	0.00024876	0.089631	
279.16	0.44497	12.496	0.080024	207.79	208.14	1.0290	0.88662	1.3576	594.81	-0.14193	0.00024725	0.089419	
279.63	0.44497	12.480	0.080127	208.43	208.78	1.0313	0.88723	1.3590	592.57	-0.13947	0.00024576	0.089207	
280.11	0.44497	12.464	0.080231	209.08	209.43	1.0337	0.88784	1.3605	590.33	-0.13698	0.00024427	0.088994	
280.58	0.44497	12.448	0.080335	209.73	210.08	1.0360	0.88845	1.3620	588.10	-0.13447	0.00024279	0.088782	
281.06	0.44497	12.432	0.080440	210.37	210.72	1.0383	0.88906	1.3635	585.86	-0.13192	0.00024132	0.088570	
281.53	0.44497	12.415	0.080545	211.02	211.37	1.0406	0.88967	1.3650	583.62	-0.12934	0.00023987	0.088359	
282.01	0.44497	12.399	0.080651	211.67	212.02	1.0429	0.89028	1.3665	581.37	-0.12674	0.00023842	0.088147	
282.48	0.44497	12.383	0.080757	212.32	212.67	1.0452	0.89090	1.3680	579.13	-0.12410	0.00023698	0.087935	
282.96	0.44497	12.366	0.080864	212.97	213.32	1.0475	0.89151	1.3695	576.88	-0.12143	0.00023555	0.087723	
283.43	0.44497	12.350	0.080972	213.62	213.97	1.0498	0.89213	1.3711	574.64	-0.11873	0.00023413	0.087512	
283.91	0.44497	12.333	0.081080	214.27	214.62	1.0521	0.89275	1.3726	572.39	-0.11600	0.00023271	0.087300	
284.39	0.44497	12.317	0.081189	214.92	215.28	1.0544	0.89337	1.3742	570.14	-0.11324	0.00023131	0.087088	
284.86	0.44497	12.300	0.081298	215.58	215.93	1.0567	0.89399	1.3758	567.88	-0.11044	0.00022992	0.086877	
285.28	0.44497	12.286	0.081396	216.16	216.51	1.0587	0.89455	1.3772	565.87	-0.10792	0.00022868	0.086688	
285.28	0.44497	0.21245	4.7069	384.98	405.50	1.7212	0.79687	0.95659	146.18	28.932	1.1180e-05	0.012597	
285.34	0.44497	0.21239	4.7083	385.02	405.55	1.7214	0.79683	0.95642	146.20	28.906	1.1183e-05	0.012601	
285.81	0.44497	0.21183	4.7208	385.42	406.01	1.7229	0.79646	0.95496	146.42	28.666	1.1203e-05	0.012637	
286.29	0.44497	0.21127	4.7332	385.82	406.46	1.7245	0.79614	0.95356	146.64	28.431	1.1224e-05	0.012673	
286.76	0.44497	0.21072	4.7457	386.22	406.91	1.7261	0.79585	0.95224	146.85	28.200	1.1244e-05	0.012709	
287.24	0.44497	0.21017	4.7581	386.62	407.37	1.7277	0.79561	0.95098	147.07	27.972	1.1265e-05	0.012745	
287.71	0.44497	0.20963	4.7704	387.01	407.82	1.7293	0.79539	0.94978	147.28	27.749	1.1285e-05	0.012781	
288.19	0.44497	0.20909	4.7827	387.41	408.27	1.7308	0.79521	0.94865	147.50	27.529	1.1305e-05	0.012817	
288.66	0.44497	0.20855	4.7950	387.81	408.72	1.7324	0.79507	0.94757	147.71	27.312	1.1326e-05	0.012853	
289.14	0.44497	0.20802	4.8072	388.20	409.17	1.7339	0.79495	0.94654	147.92	27.100	1.1346e-05	0.012889	
289.61	0.44497	0.20750	4.8194	388.60	409.62	1.7355	0.79486	0.94557	148.13	26.890	1.1367e-05	0.012926	
290.09	0.44497	0.20697	4.8315	389.00	410.07	1.7370	0.79480	0.94465	148.34	26.684	1.1387e-05	0.012962	
290.56	0.44497	0.20646	4.8436	389.39	410.52	1.7386	0.79477	0.94378	148.54	26.482	1.1407e-05	0.012998	
291.04	0.44497	0.20594	4.8557	389.79	410.96	1.7401	0.79476	0.94295	148.75	26.282	1.1428e-05	0.013035	
291.51	0.44497	0.20543	4.8677	390.18	411.41	1.7417	0.79477	0.94217	148.96	26.086	1.1448e-05	0.013071	
291.99	0.44497	0.20493	4.8798	390.58	411.86	1.7432	0.79482	0.94143	149.16	25.892	1.1468e-05	0.013107	
292.46	0.44497	0.20443	4.8917	390.97	412.31	1.7447	0.79488	0.94073	149.36	25.701	1.1488e-05	0.013144	
292.94	0.44497	0.20393	4.9037	391.37	412.75	1.7463	0.79496	0.94008	149.57	25.513	1.1509e-05	0.013180	
293.41	0.44497	0.20343	4.9156	391.76	413.20	1.7478	0.79507	0.93946	149.77	25.328	1.1529e-05	0.013217	
293.89	0.44497	0.20294	4.9275	392.16	413.65	1.7493	0.79519	0.93887	149.97	25.146	1.1549e-05	0.013253	
294.37	0.44497	0.20246	4.9393	392.55	414.09	1.7508	0.79534	0.93832	150.17	24.966	1.1569e-05	0.013290	
294.84	0.44497	0.20197	4.9511	392.95	414.54	1.7523	0.79550	0.93781	150.37	24.789	1.1589e-05	0.013327	
295.32	0.44497	0.20149	4.9629	393.34	414.98	1.7538	0.79568	0.93733	150.57	24.614	1.1610e-05	0.013363	
295.79	0.44497	0.20102	4.9747	393.74	415.43	1.7554	0.79588	0.93688	150.76	24.441	1.1630e-05	0.013400	
296.27	0.44497	0.20055	4.9864	394.13	415.88	1.7569	0.79610	0.93645	150.96	24.271	1.1650e-05	0.013437	
296.74	0.44497	0.20008	4.9981	394.52	416.32	1.7584	0.79633	0.93606	151.15	24.103	1.1670e-05	0.013473	
297.22	0.44497	0.19961	5.0098	394.92	416.77	1.7599	0.79657	0.93570	151.35	23.938	1.1690e-05	0.013510	
297.69	0.44497	0.19915	5.0214	395.31	417.21	1.7613	0.79683	0.93536	151.54	23.775	1.1710e-05	0.013547	
298.17	0.44497	0.19869	5.0331	395.70	417.65	1.7628	0.79710	0.93505	151.74	23.613	1.1730e-05	0.013584	
298.64	0.44497	0.19823	5.0447	396.10	418.10	1.7643	0.79739	0.93476	151.93	23.454	1.1750e-05	0.013620	
299.12	0.44497	0.19778	5.0562	396.49	418.54	1.7658	0.79769	0.93450	152.12	23.297	1.1770e-05	0.013657	
299.59	0.44497	0.19732	5.0678	396.89	418.99	1.7673	0.79800	0.93426	152.31	23.142	1.1790e-05	0.013694	
300.07	0.44497	0.19688	5.0793	397.28	419.43	1.7688	0.79833	0.93404	152.50	22.989	1.1810e-05	0.013731	
300.54	0.44497	0.19643	5.0908	397.67	419.87	1.7703	0.79866	0.93384	152.69	22.837	1.1830e-05	0.013768	
301.02	0.44497	0.19599	5.1023	398.07	420.32	1.7717	0.79901	0.93367	152.88	22.688	1.1850e-05	0.013805	
301.49	0.44497	0.19555	5.1138	398.46	420.76	1.7732	0.79937	0.93352	153.07	22.540	1.1870e-05	0.013842	
301.97	0.44497	0.19511	5.1252	398.85	421.21	1.7747	0.79974	0.93338	153.25	22.394	1.1890e-05	0.013878	
302.44	0.44497	0.19468	5.1366	399.25	421.65	1.7761	0.80011	0.93326	153.44	22.250	1.1910e-05	0.013915	
302.92	0.44497	0.19425	5.1480	399.64	422.09	1.7776	0.80050	0.93317	153.63	22.108	1.1930e-05	0.013952	
303.40	0.44497	0.19382	5.1594	400.04	422.54	1.7791	0.80090	0.93309	153.81	21.967	1.1949e-05	0.013989	
303.87	0.44497	0.19340	5.1707	400.43	422.98	1.7805	0.80130	0.93302	154.00	21.827	1.1969e-05	0.014026	
304.35	0.44497	0.19297	5.1820	400.82	423.42	1.7820	0.80172	0.93298	154.18	21.690	1.1989e-05	0.014063	
304.82	0.44497	0.19255	5.1933	401.22	423.87	1.7834	0.80214	0.93295	154.36	21.554	1.2009e-05	0.014100	
305.30	0.44497	0.19214	5.2046	401.61	424.31	1.7849	0.80257	0.93293	154.55	21.419	1.2029e-05	0.014137	
305.77	0.44497	0.19172	5.2159	402.01	424.75	1.7864	0.80301	0.93293	154.73	21.286	1.2049e-05	0.014174	
306.25	0.44497	0.19131	5.2271	402.40	425.20	1.7878	0.80345	0.93295	154.91	21.155	1.2068e-05	0.014211	
306.72	0.44497	0.19090	5.2384	402.79	425.64	1.7892	0.80391	0.93297	155.09	21.024	1.2088e-05	0.014249	
307.20	0.44497	0.19049	5.2496	403.19	426.08	1.7907	0.80437	0.93302	155.27	20.896	1.2108e-05	0.014286	
307.67	0.44497	0.19009	5.2608	403.58	426.53	1.7921	0.80483	0.93307	155.45	20.768	1.2128e-05	0.014323	
308.15	0.44497	0.18968	5.2719	403.98	426.97	1.7936	0.80530	0.93314	155.63	20.642	1.2147e-05	0.014360	
308.62	0.44497	0.18928	5.2831	404.37	427.41	1.7950	0.80578	0.93322	155.81	20.518	1.2167e-05	0.014397	
309.10	0.44497	0.18889	5.2942	404.77	427.86	1.7964	0.80627	0.93332	155.99	20.394	1.2187e-05	0.014434	
309.57	0.44497	0.18849	5.3053	405.16	428.30	1.7979	0.80676	0.93342	156.16	20.272	1.2206e-05	0.014471	
310.05	0.44497	0.18810	5.3164	405.56	428.74	1.7993	0.80726	0.93354	156.34	20.151	1.2226e-05	0.014508	
310.52	0.44497	0.18770	5.3275	405.95	429.19	1.8007	0.80776	0.93367	156.52	20.031	1.2246e-05	0.014546	
311.00	0.44497	0.18732	5.3386	406.35	429.63	1.8022	0.80827	0.93380	156.69	19.913	1.2265e-05	0.014583	
311.47	0.44497	0.18693	5.3496	406.75	430.08	1.8036	0.80878	0.93395	156.87	19.796	1.2285e-05	0.014620	
311.95	0.44497	0.18654	5.3607	407.14	430.52	1.8050	0.80930	0.93411	157.04	19.680	1.2305e-05	0.014657	
312.42	0.44497	0.18616	5.3717	407.54	430.96	1.8064	0.80982	0.93428	157.22	19.565	1.2324e-05	0.014694	
312.90	0.44497	0.18578	5.3827	407.93	431.41	1.8079	0.81035	0.93446	157.39	19.451	1.2344e-05	0.014732	
313.38	0.44497	0.18540	5.3937	408.33	431.85	1.8093	0.81088	0.93465	157.56	19.338	1.2363e-05	0.014769	
313.85	0.44497	0.18503	5.4046	408.73	432.30	1.8107	0.81142	0.93485	157.74	19.227	1.2383e-05	0.014806	
314.33	0.44497	0.18465	5.4156	409.12	432.74	1.8121	0.81196	0.93505	157.91	19.116	1.2402e-05	0.014843	
314.80	0.44497	0.18428	5.4265	409.52	433.18	1.8135	0.81250	0.93527	158.08	19.006	1.2422e-05	0.014881	
315.28	0.44497	0.18391	5.4375	409.92	433.63	1.8149	0.81305	0.93549	158.25	18.898	1.2441e-05	0.014918	
315.75	0.44497	0.18354	5.4484	410.31	434.07	1.8163	0.81361	0.93572	158.42	18.791	1.2461e-05	0.014955	
316.23	0.44497	0.18318	5.4593	410.71	434.52	1.8178	0.81416	0.93596	158.59	18.684	1.2480e-05	0.014992	
316.70	0.44497	0.18281	5.4701	411.11	434.96	1.8192	0.81472	0.93621	158.76	18.579	1.2500e-05	0.015030	
317.18	0.44497	0.18245	5.4810	411.51	435.41	1.8206	0.81529	0.93647	158.93	18.474	1.2519e-05	0.015067	
317.65	0.44497	0.18209	5.4919	411.90	435.85	1.8220	0.81585	0.93673	159.10	18.371	1.2539e-05	0.015104	
318.13	0.44497	0.18173	5.5027	412.30	436.30	1.8234	0.81643	0.93700	159.27	18.268	1.2558e-05	0.015142	
318.60	0.44497	0.18137	5.5135	412.70	436.74	1.8248	0.81700	0.93728	159.44	18.166	1.2578e-05	0.015179	
319.08	0.44497	0.18102	5.5243	413.10	437.19	1.8262	0.81758	0.93756	159.60	18.065	1.2597e-05	0.015216	
319.55	0.44497	0.18066	5.5351	413.50	437.64	1.8276	0.81816	0.93785	159.77	17.966	1.2617e-05	0.015254	
320.03	0.44497	0.18031	5.5459	413.90	438.08	1.8290	0.81874	0.93815	159.94	17.867	1.2636e-05	0.015291	
320.50	0.44497	0.17996	5.5567	414.29	438.53	1.8303	0.81933	0.93845	160.10	17.768	1.2655e-05	0.015328	
320.98	0.44497	0.17962	5.5674	414.69	438.97	1.8317	0.81992	0.93876	160.27	17.671	1.2675e-05	0.015366	
321.45	0.44497	0.17927	5.5782	415.09	439.42	1.8331	0.82051	0.93908	160.43	17.575	1.2694e-05	0.015403	
321.93	0.44497	0.17893	5.5889	415.49	439.87	1.8345	0.82110	0.93940	160.60	17.479	1.2714e-05	0.015440	
322.41	0.44497	0.17858	5.5996	415.89	440.31	1.8359	0.82170	0.93973	160.76	17.384	1.2733e-05	0.015478	
322.88	0.44497	0.17824	5.6103	416.29	440.76	1.8373	0.82230	0.94007	160.92	17.290	1.2752e-05	0.015515	
323.36	0.44497	0.17790	5.6210	416.69	441.21	1.8387	0.82290	0.94041	161.09	17.197	1.2772e-05	0.015553	
323.83	0.44497	0.17757	5.6317	417.09	441.65	1.8400	0.82351	0.94075	161.25	17.105	1.2791e-05	0.015590	
324.31	0.44497	0.17723	5.6424	417.49	442.10	1.8414	0.82411	0.94110	161.41	17.013	1.2810e-05	0.015628	
324.78	0.44497	0.17690	5.6530	417.89	442.55	1.8428	0.82472	0.94146	161.58	16.922	1.2829e-05	0.015665	
325.26	0.44497	0.17656	5.6637	418.30	442.99	1.8442	0.82534	0.94182	161.74	16.832	1.2849e-05	0.015702	
325.73	0.44497	0.17623	5.6743	418.70	443.44	1.8456	0.82595	0.94219	161.90	16.743	1.2868e-05	0.015740	
326.21	0.44497	0.17590	5.6849	419.10	443.89	1.8469	0.82657	0.94256	162.06	16.654	1.2887e-05	0.015777	
326.68	0.44497	0.17558	5.6955	419.50	444.34	1.8483	0.82718	0.94293	162.22	16.567	1.2907e-05	0.015815	
327.16	0.44497	0.17525	5.7061	419.90	444.79	1.8497	0.82780	0.94331	162.38	16.479	1.2926e-05	0.015852	
327.63	0.44497	0.17493	5.7167	420.30	445.24	1.8510	0.82843	0.94370	162.54	16.393	1.2945e-05	0.015890	
328.11	0.44497	0.17460	5.7273	420.71	445.68	1.8524	0.82905	0.94409	162.70	16.307	1.2964e-05	0.015927	
328.58	0.44497	0.17428	5.7379	421.11	446.13	1.8538	0.82967	0.94448	162.86	16.222	1.2983e-05	0.015965	
329.06	0.44497	0.17396	5.7484	421.51	446.58	1.8551	0.83030	0.94488	163.02	16.138	1.3003e-05	0.016002	
329.53	0.44497	0.17364	5.7590	421.92	447.03	1.8565	0.83093	0.94529	163.18	16.054	1.3022e-05	0.016040	
330.01	0.44497	0.17333	5.7695	422.32	447.48	1.8579	0.83156	0.94569	163.33	15.971	1.3041e-05	0.016077	
330.48	0.44497	0.17301	5.7800	422.72	447.93	1.8592	0.83220	0.94610	163.49	15.889	1.3060e-05	0.016115	
330.96	0.44497	0.17270	5.7905	423.13	448.38	1.8606	0.83283	0.94652	163.65	15.807	1.3079e-05	0.016152	
331.44	0.44497	0.17238	5.8010	423.53	448.83	1.8620	0.83347	0.94694	163.81	15.726	1.3099e-05	0.016190	
331.91	0.44497	0.17207	5.8115	423.93	449.28	1.8633	0.83410	0.94736	163.96	15.646	1.3118e-05	0.016227	
332.39	0.44497	0.17176	5.8220	424.34	449.73	1.8647	0.83474	0.94779	164.12	15.566	1.3137e-05	0.016265	
332.86	0.44497	0.17145	5.8325	424.74	450.18	1.8660	0.83538	0.94822	164.27	15.486	1.3156e-05	0.016302	
333.34	0.44497	0.17115	5.8429	425.15	450.63	1.8674	0.83603	0.94865	164.43	15.408	1.3175e-05	0.016340	
333.81	0.44497	0.17084	5.8534	425.55	451.08	1.8687	0.83667	0.94909	164.58	15.330	1.3194e-05	0.016377	
334.29	0.44497	0.17054	5.8638	425.96	451.53	1.8701	0.83732	0.94953	164.74	15.253	1.3213e-05	0.016415	
334.76	0.44497	0.17023	5.8743	426.37	451.98	1.8714	0.83796	0.94998	164.89	15.176	1.3232e-05	0.016452	
335.24	0.44497	0.16993	5.8847	426.77	452.44	1.8728	0.83861	0.95043	165.05	15.099	1.3251e-05	0.016490	
335.71	0.44497	0.16963	5.8951	427.18	452.89	1.8741	0.83926	0.95088	165.20	15.024	1.3271e-05	0.016527	
336.19	0.44497	0.16933	5.9055	427.59	453.34	1.8755	0.83991	0.95133	165.35	14.949	1.3290e-05	0.016565	
336.66	0.44497	0.16904	5.9159	427.99	453.79	1.8768	0.84056	0.95179	165.51	14.874	1.3309e-05	0.016602	
337.14	0.44497	0.16874	5.9263	428.40	454.24	1.8782	0.84121	0.95225	165.66	14.800	1.3328e-05	0.016640	
337.61	0.44497	0.16845	5.9367	428.81	454.70	1.8795	0.84187	0.95272	165.81	14.727	1.3347e-05	0.016678	
338.09	0.44497	0.16815	5.9470	429.21	455.15	1.8808	0.84252	0.95319	165.96	14.654	1.3366e-05	0.016715	
338.56	0.44497	0.16786	5.9574	429.62	455.60	1.8822	0.84318	0.95366	166.12	14.582	1.3385e-05	0.016753	
339.04	0.44497	0.16757	5.9677	430.03	456.06	1.8835	0.84384	0.95413	166.27	14.510	1.3404e-05	0.016790	
339.51	0.44497	0.16728	5.9781	430.44	456.51	1.8848	0.84450	0.95461	166.42	14.439	1.3423e-05	0.016828	
339.99	0.44497	0.16699	5.9884	430.85	456.96	1.8862	0.84516	0.95509	166.57	14.368	1.3442e-05	0.016866	
340.46	0.44497	0.16670	5.9987	431.26	457.42	1.8875	0.84582	0.95557	166.72	14.298	1.3461e-05	0.016903	
340.94	0.44497	0.16642	6.0090	431.67	457.87	1.8889	0.84648	0.95605	166.87	14.228	1.3480e-05	0.016941	
341.42	0.44497	0.16613	6.0193	432.08	458.33	1.8902	0.84714	0.95654	167.02	14.159	1.3499e-05	0.016978	
341.89	0.44497	0.16585	6.0296	432.49	458.78	1.8915	0.84781	0.95703	167.17	14.090	1.3518e-05	0.017016	
342.37	0.44497	0.16556	6.0399	432.90	459.24	1.8928	0.84847	0.95752	167.32	14.022	1.3537e-05	0.017054	
342.84	0.44497	0.16528	6.0502	433.31	459.69	1.8942	0.84914	0.95802	167.47	13.954	1.3556e-05	0.017091	
343.32	0.44497	0.16500	6.0605	433.72	460.15	1.8955	0.84980	0.95852	167.62	13.887	1.3574e-05	0.017129	
343.79	0.44497	0.16472	6.0708	434.13	460.60	1.8968	0.85047	0.95902	167.77	13.820	1.3593e-05	0.017166	
344.27	0.44497	0.16445	6.0810	434.54	461.06	1.8982	0.85114	0.95952	167.91	13.754	1.3612e-05	0.017204	
344.74	0.44497	0.16417	6.0913	434.95	461.51	1.8995	0.85181	0.96003	168.06	13.688	1.3631e-05	0.017242	
345.22	0.44497	0.16389	6.1015	435.36	461.97	1.9008	0.85248	0.96053	168.21	13.623	1.3650e-05	0.017279	
345.69	0.44497	0.16362	6.1117	435.77	462.43	1.9021	0.85315	0.96104	168.36	13.558	1.3669e-05	0.017317	
346.17	0.44497	0.16335	6.1220	436.19	462.88	1.9034	0.85382	0.96156	168.50	13.494	1.3688e-05	0.017355	
346.64	0.44497	0.16307	6.1322	436.60	463.34	1.9048	0.85449	0.96207	168.65	13.430	1.3707e-05	0.017392	
347.12	0.44497	0.16280	6.1424	437.01	463.80	1.9061	0.85517	0.96259	168.80	13.366	1.3726e-05	0.017430	
347.59	0.44497	0.16253	6.1526	437.42	464.26	1.9074	0.85584	0.96311	168.94	13.303	1.3745e-05	0.017467	
348.07	0.44497	0.16226	6.1628	437.84	464.71	1.9087	0.85652	0.96363	169.09	13.240	1.3763e-05	0.017505	
348.54	0.44497	0.16200	6.1730	438.25	465.17	1.9100	0.85719	0.96415	169.23	13.178	1.3782e-05	0.017543	
349.02	0.44497	0.16173	6.1832	438.67	465.63	1.9113	0.85787	0.96468	169.38	13.116	1.3801e-05	0.017580	
349.49	0.44497	0.16146	6.1933	439.08	466.09	1.9127	0.85855	0.96521	169.52	13.055	1.3820e-05	0.017618	
349.97	0.44497	0.16120	6.2035	439.49	466.55	1.9140	0.85922	0.96574	169.67	12.994	1.3839e-05	0.017656	
350.45	0.44497	0.16094	6.2137	439.91	467.01	1.9153	0.85990	0.96627	169.81	12.934	1.3858e-05	0.017693	
350.92	0.44497	0.16067	6.2238	440.32	467.47	1.9166	0.86058	0.96680	169.96	12.874	1.3876e-05	0.017731	
351.40	0.44497	0.16041	6.2340	440.74	467.93	1.9179	0.86126	0.96734	170.10	12.814	1.3895e-05	0.017769	
351.87	0.44497	0.16015	6.2441	441.15	468.39	1.9192	0.86194	0.96787	170.24	12.755	1.3914e-05	0.017806	
352.35	0.44497	0.15989	6.2542	441.57	468.85	1.9205	0.86262	0.96841	170.39	12.696	1.3933e-05	0.017844	
352.82	0.44497	0.15963	6.2644	441.99	469.31	1.9218	0.86330	0.96895	170.53	12.637	1.3952e-05	0.017882	
353.30	0.44497	0.15938	6.2745	442.40	469.77	1.9231	0.86399	0.96950	170.67	12.579	1.3970e-05	0.017920	
353.77	0.44497	0.15912	6.2846	442.82	470.23	1.9244	0.86467	0.97004	170.82	12.522	1.3989e-05	0.017957	
354.25	0.44497	0.15886	6.2947	443.24	470.69	1.9257	0.86535	0.97059	170.96	12.464	1.4008e-05	0.017995	
354.72	0.44497	0.15861	6.3048	443.65	471.15	1.9270	0.86604	0.97114	171.10	12.407	1.4027e-05	0.018033	
355.20	0.44497	0.15836	6.3149	444.07	471.61	1.9283	0.86672	0.97169	171.24	12.351	1.4045e-05	0.018070	
355.67	0.44497	0.15810	6.3250	444.49	472.07	1.9296	0.86741	0.97224	171.38	12.295	1.4064e-05	0.018108	
356.15	0.44497	0.15785	6.3350	444.91	472.54	1.9309	0.86809	0.97279	171.53	12.239	1.4083e-05	0.018146	
356.62	0.44497	0.15760	6.3451	445.33	473.00	1.9322	0.86878	0.97335	171.67	12.183	1.4102e-05	0.018183	
357.10	0.44497	0.15735	6.3552	445.75	473.46	1.9335	0.86947	0.97390	171.81	12.128	1.4120e-05	0.018221	
357.57	0.44497	0.15710	6.3652	446.17	473.92	1.9348	0.87015	0.97446	171.95	12.074	1.4139e-05	0.018259	
358.05	0.44497	0.15686	6.3753	446.58	474.39	1.9361	0.87084	0.97502	172.09	12.019	1.4158e-05	0.018297	
358.52	0.44497	0.15661	6.3853	447.00	474.85	1.9374	0.87153	0.97558	172.23	11.965	1.4176e-05	0.018334	
359.00	0.44497	0.15636	6.3954	447.42	475.32	1.9387	0.87222	0.97615	172.37	11.912	1.4195e-05	0.018372	
359.47	0.44497	0.15612	6.4054	447.84	475.78	1.9400	0.87291	0.97671	172.51	11.858	1.4214e-05	0.018410	
359.95	0.44497	0.15587	6.4154	448.27	476.24	1.9413	0.87360	0.97728	172.65	11.806	1.4232e-05	0.018447	
360.43	0.44497	0.15563	6.4255	448.69	476.71	1.9426	0.87429	0.97785	172.79	11.753	1.4251e-05	0.018485	
360.90	0.44497	0.15539	6.4355	449.11	477.17	1.9439	0.87498	0.97842	172.93	11.701	1.4270e-05	0.018523	
361.38	0.44497	0.15515	6.4455	449.53	477.64	1.9451	0.87567	0.97899	173.07	11.649	1.4288e-05	0.018561	
361.85	0.44497	0.15491	6.4555	449.95	478.10	1.9464	0.87636	0.97956	173.20	11.597	1.4307e-05	0.018598	
362.33	0.44497	0.15467	6.4655	450.37	478.57	1.9477	0.87705	0.98013	173.34	11.546	1.4326e-05	0.018636	
362.80	0.44497	0.15443	6.4755	450.79	479.03	1.9490	0.87774	0.98071	173.48	11.495	1.4344e-05	0.018674	
363.28	0.44497	0.15419	6.4855	451.22	479.50	1.9503	0.87843	0.98128	173.62	11.444	1.4363e-05	0.018711	
363.75	0.44497	0.15395	6.4954	451.64	479.97	1.9516	0.87913	0.98186	173.76	11.394	1.4382e-05	0.018749	
364.23	0.44497	0.15372	6.5054	452.06	480.43	1.9529	0.87982	0.98244	173.89	11.344	1.4400e-05	0.018787	
364.70	0.44497	0.15348	6.5154	452.49	480.90	1.9541	0.88051	0.98302	174.03	11.295	1.4419e-05	0.018825	
365.18	0.44497	0.15325	6.5254	452.91	481.37	1.9554	0.88121	0.98360	174.17	11.245	1.4438e-05	0.018862	
365.65	0.44497	0.15301	6.5353	453.34	481.84	1.9567	0.88190	0.98418	174.31	11.196	1.4456e-05	0.018900	
366.13	0.44497	0.15278	6.5453	453.76	482.30	1.9580	0.88260	0.98476	174.44	11.148	1.4475e-05	0.018938	
366.60	0.44497	0.15255	6.5552	454.18	482.77	1.9593	0.88329	0.98535	174.58	11.099	1.4493e-05	0.018976	
367.08	0.44497	0.15232	6.5652	454.61	483.24	1.9605	0.88399	0.98594	174.71	11.051	1.4512e-05	0.019013	
367.55	0.44497	0.15209	6.5751	455.04	483.71	1.9618	0.88468	0.98652	174.85	11.004	1.4530e-05	0.019051	
368.03	0.44497	0.15186	6.5850	455.46	484.18	1.9631	0.88538	0.98711	174.99	10.956	1.4549e-05	0.019089	
368.50	0.44497	0.15163	6.5949	455.89	484.65	1.9644	0.88608	0.98770	175.12	10.909	1.4568e-05	0.019127	
368.98	0.44497	0.15140	6.6049	456.31	485.12	1.9656	0.88677	0.98829	175.26	10.862	1.4586e-05	0.019164	
369.46	0.44497	0.15118	6.6148	456.74	485.59	1.9669	0.88747	0.98888	175.39	10.815	1.4605e-05	0.019202	
369.93	0.44497	0.15095	6.6247	457.17	486.06	1.9682	0.88817	0.98948	175.53	10.769	1.4623e-05	0.019240	
370.41	0.44497	0.15073	6.6346	457.59	486.53	1.9694	0.88886	0.99007	175.66	10.723	1.4642e-05	0.019278	
370.88	0.44497	0.15050	6.6445	458.02	487.00	1.9707	0.88956	0.99067	175.80	10.677	1.4660e-05	0.019316	
371.36	0.44497	0.15028	6.6544	458.45	487.47	1.9720	0.89026	0.99126	175.93	10.632	1.4679e-05	0.019353	
371.83	0.44497	0.15005	6.6643	458.88	487.94	1.9733	0.89096	0.99186	176.06	10.587	1.4697e-05	0.019391	
372.31	0.44497	0.14983	6.6742	459.31	488.41	1.9745	0.89166	0.99246	176.20	10.542	1.4716e-05	0.019429	
372.78	0.44497	0.14961	6.6840	459.73	488.88	1.9758	0.89236	0.99306	176.33	10.497	1.4734e-05	0.019467	
373.26	0.44497	0.14939	6.6939	460.16	489.36	1.9771	0.89306	0.99366	176.47	10.453	1.4753e-05	0.019504	
373.73	0.44497	0.14917	6.7038	460.59	489.83	1.9783	0.89376	0.99426	176.60	10.409	1.4771e-05	0.019542	
374.21	0.44497	0.14895	6.7137	461.02	490.30	1.9796	0.89445	0.99486	176.73	10.365	1.4790e-05	0.019580	
374.68	0.44497	0.14873	6.7235	461.45	490.77	1.9808	0.89515	0.99547	176.86	10.322	1.4808e-05	0.019618	
375.16	0.44497	0.14851	6.7334	461.88	491.25	1.9821	0.89585	0.99607	177.00	10.278	1.4827e-05	0.019656	
375.63	0.44497	0.14830	6.7432	462.31	491.72	1.9834	0.89656	0.99668	177.13	10.235	1.4845e-05	0.019693	
376.11	0.44497	0.14808	6.7531	462.74	492.19	1.9846	0.89726	0.99728	177.26	10.193	1.4864e-05	0.019731	
376.58	0.44497	0.14787	6.7629	463.18	492.67	1.9859	0.89796	0.99789	177.39	10.150	1.4882e-05	0.019769	
377.06	0.44497	0.14765	6.7727	463.61	493.14	1.9871	0.89866	0.99850	177.53	10.108	1.4901e-05	0.019807	
377.53	0.44497	0.14744	6.7826	464.04	493.62	1.9884	0.89936	0.99911	177.66	10.066	1.4919e-05	0.019845	
378.01	0.44497	0.14722	6.7924	464.47	494.09	1.9897	0.90006	0.99972	177.79	10.024	1.4938e-05	0.019882	
378.48	0.44497	0.14701	6.8022	464.90	494.57	1.9909	0.90076	1.0003	177.92	9.9828	1.4956e-05	0.019920	
378.96	0.44497	0.14680	6.8120	465.34	495.04	1.9922	0.90146	1.0009	178.05	9.9415	1.4975e-05	0.019958	
379.44	0.44497	0.14659	6.8219	465.77	495.52	1.9934	0.90217	1.0016	178.18	9.9006	1.4993e-05	0.019996	
379.91	0.44497	0.14638	6.8317	466.20	496.00	1.9947	0.90287	1.0022	178.31	9.8598	1.5011e-05	0.020034	
380.39	0.44497	0.14617	6.8415	466.64	496.47	1.9959	0.90357	1.0028	178.44	9.8194	1.5030e-05	0.020071	
380.86	0.44497	0.14596	6.8513	467.07	496.95	1.9972	0.90427	1.0034	178.57	9.7791	1.5048e-05	0.020109	
381.34	0.44497	0.14575	6.8611	467.50	497.43	1.9984	0.90497	1.0040	178.71	9.7391	1.5067e-05	0.020147	
381.81	0.44497	0.14554	6.8709	467.94	497.90	1.9997	0.90568	1.0046	178.84	9.6993	1.5085e-05	0.020185	
382.29	0.44497	0.14534	6.8807	468.37	498.38	2.0009	0.90638	1.0052	178.97	9.6598	1.5103e-05	0.020223	
382.76	0.44497	0.14513	6.8904	468.81	498.86	2.0022	0.90708	1.0059	179.09	9.6205	1.5122e-05	0.020260	
383.24	0.44497	0.14492	6.9002	469.24	499.34	2.0034	0.90779	1.0065	179.22	9.5814	1.5140e-05	0.020298	
383.71	0.44497	0.14472	6.9100	469.68	499.82	2.0047	0.90849	1.0071	179.35	9.5426	1.5159e-05	0.020336	
384.19	0.44497	0.14451	6.9198	470.12	500.29	2.0059	0.90919	1.0077	179.48	9.5039	1.5177e-05	0.020374	
384.66	0.44497	0.14431	6.9295	470.55	500.77	2.0072	0.90990	1.0083	179.61	9.4656	1.5195e-05	0.020412	
385.14	0.44497	0.14411	6.9393	470.99	501.25	2.0084	0.91060	1.0090	179.74	9.4274	1.5214e-05	0.020449	
385.61	0.44497	0.14390	6.9490	471.43	501.73	2.0097	0.91131	1.0096	179.87	9.3894	1.5232e-05	0.020487	
386.09	0.44497	0.14370	6.9588	471.86	502.21	2.0109	0.91201	1.0102	180.00	9.3517	1.5251e-05	0.020525	
386.56	0.44497	0.14350	6.9686	472.30	502.69	2.0122	0.91271	1.0108	180.13	9.3142	1.5269e-05	0.020563	
387.04	0.44497	0.14330	6.9783	472.74	503.17	2.0134	0.91342	1.0115	180.25	9.2769	1.5287e-05	0.020601	
387.51	0.44497	0.14310	6.9880	473.18	503.65	2.0146	0.91412	1.0121	180.38	9.2399	1.5306e-05	0.020639	
387.99	0.44497	0.14290	6.9978	473.62	504.13	2.0159	0.91483	1.0127	180.51	9.2030	1.5324e-05	0.020676	
388.47	0.44497	0.14270	7.0075	474.06	504.62	2.0171	0.91553	1.0133	180.64	9.1663	1.5342e-05	0.020714	
388.94	0.44497	0.14251	7.0172	474.50	505.10	2.0184	0.91624	1.0140	180.77	9.1299	1.5361e-05	0.020752	
389.42	0.44497	0.14231	7.0270	474.93	505.58	2.0196	0.91694	1.0146	180.89	9.0937	1.5379e-05	0.020790	
389.89	0.44497	0.14211	7.0367	475.37	506.06	2.0208	0.91765	1.0152	181.02	9.0577	1.5397e-05	0.020828	
390.37	0.44497	0.14192	7.0464	475.81	506.54	2.0221	0.91835	1.0159	181.15	9.0218	1.5416e-05	0.020865	
390.84	0.44497	0.14172	7.0561	476.26	507.03	2.0233	0.91906	1.0165	181.27	8.9862	1.5434e-05	0.020903	
391.32	0.44497	0.14153	7.0658	476.70	507.51	2.0245	0.91976	1.0171	181.40	8.9508	1.5452e-05	0.020941	
391.79	0.44497	0.14133	7.0755	477.14	507.99	2.0258	0.92047	1.0177	181.53	8.9156	1.5470e-05	0.020979	
392.27	0.44497	0.14114	7.0852	477.58	508.48	2.0270	0.92117	1.0184	181.65	8.8806	1.5489e-05	0.021017	
392.74	0.44497	0.14095	7.0950	478.02	508.96	2.0283	0.92188	1.0190	181.78	8.8458	1.5507e-05	0.021055	
393.22	0.44497	0.14075	7.1046	478.46	509.45	2.0295	0.92258	1.0196	181.91	8.8112	1.5525e-05	0.021092	
393.69	0.44497	0.14056	7.1143	478.91	509.93	2.0307	0.92329	1.0203	182.03	8.7768	1.5544e-05	0.021130	
394.17	0.44497	0.14037	7.1240	479.35	510.42	2.0319	0.92399	1.0209	182.16	8.7425	1.5562e-05	0.021168	
394.64	0.44497	0.14018	7.1337	479.79	510.90	2.0332	0.92470	1.0215	182.28	8.7085	1.5580e-05	0.021206	
395.12	0.44497	0.13999	7.1434	480.23	511.39	2.0344	0.92541	1.0222	182.41	8.6747	1.5598e-05	0.021244	
395.59	0.44497	0.13980	7.1531	480.68	511.87	2.0356	0.92611	1.0228	182.53	8.6410	1.5617e-05	0.021282	
396.07	0.44497	0.13961	7.1628	481.12	512.36	2.0369	0.92682	1.0234	182.66	8.6076	1.5635e-05	0.021320	
396.54	0.44497	0.13942	7.1724	481.57	512.85	2.0381	0.92752	1.0241	182.78	8.5743	1.5653e-05	0.021357	
397.02	0.44497	0.13924	7.1821	482.01	513.33	2.0393	0.92823	1.0247	182.91	8.5412	1.5671e-05	0.021395	
397.49	0.44497	0.13905	7.1918	482.46	513.82	2.0405	0.92894	1.0254	183.03	8.5083	1.5690e-05	0.021433	
397.97	0.44497	0.13886	7.2014	482.90	514.31	2.0418	0.92964	1.0260	183.16	8.4756	1.5708e-05	0.021471	
398.45	0.44497	0.13868	7.2111	483.35	514.80	2.0430	0.93035	1.0266	183.28	8.4430	1.5726e-05	0.021509	
398.92	0.44497	0.13849	7.2207	483.79	515.28	2.0442	0.93105	1.0273	183.41	8.4107	1.5744e-05	0.021547	
399.40	0.44497	0.13831	7.2304	484.24	515.77	2.0454	0.93176	1.0279	183.53	8.3785	1.5763e-05	0.021584	
399.87	0.44497	0.13812	7.2400	484.69	516.26	2.0467	0.93247	1.0286	183.65	8.3465	1.5781e-05	0.021622	
400.35	0.44497	0.13794	7.2497	485.13	516.75	2.0479	0.93317	1.0292	183.78	8.3146	1.5799e-05	0.021660	
400.82	0.44497	0.13775	7.2593	485.58	517.24	2.0491	0.93388	1.0298	183.90	8.2830	1.5817e-05	0.021698	
401.30	0.44497	0.13757	7.2689	486.03	517.73	2.0503	0.93459	1.0305	184.02	8.2515	1.5835e-05	0.021736	
401.77	0.44497	0.13739	7.2786	486.48	518.22	2.0516	0.93529	1.0311	184.15	8.2202	1.5854e-05	0.021774	
402.25	0.44497	0.13721	7.2882	486.92	518.71	2.0528	0.93600	1.0318	184.27	8.1891	1.5872e-05	0.021812	
402.72	0.44497	0.13703	7.2978	487.37	519.20	2.0540	0.93671	1.0324	184.39	8.1581	1.5890e-05	0.021849	
403.20	0.44497	0.13685	7.3075	487.82	519.69	2.0552	0.93741	1.0331	184.52	8.1273	1.5908e-05	0.021887	
403.67	0.44497	0.13667	7.3171	488.27	520.18	2.0564	0.93812	1.0337	184.64	8.0967	1.5926e-05	0.021925	
404.15	0.44497	0.13649	7.3267	488.72	520.67	2.0576	0.93882	1.0343	184.76	8.0662	1.5945e-05	0.021963	
404.62	0.44497	0.13631	7.3363	489.17	521.16	2.0589	0.93953	1.0350	184.88	8.0359	1.5963e-05	0.022001	
405.10	0.44497	0.13613	7.3459	489.62	521.66	2.0601	0.94024	1.0356	185.01	8.0058	1.5981e-05	0.022039	
405.57	0.44497	0.13595	7.3555	490.07	522.15	2.0613	0.94094	1.0363	185.13	7.9758	1.5999e-05	0.022077	
406.05	0.44497	0.13577	7.3651	490.52	522.64	2.0625	0.94165	1.0369	185.25	7.9460	1.6017e-05	0.022114	
406.52	0.44497	0.13560	7.3748	490.97	523.13	2.0637	0.94236	1.0376	185.37	7.9163	1.6035e-05	0.022152	
407.00	0.44497	0.13542	7.3844	491.42	523.63	2.0649	0.94306	1.0382	185.49	7.8868	1.6054e-05	0.022190	
407.48	0.44497	0.13525	7.3939	491.88	524.12	2.0661	0.94377	1.0389	185.62	7.8575	1.6072e-05	0.022228	
407.95	0.44497	0.13507	7.4035	492.33	524.61	2.0673	0.94448	1.0395	185.74	7.8283	1.6090e-05	0.022266	
408.43	0.44497	0.13490	7.4131	492.78	525.11	2.0686	0.94518	1.0402	185.86	7.7993	1.6108e-05	0.022304	
408.90	0.44497	0.13472	7.4227	493.23	525.60	2.0698	0.94589	1.0408	185.98	7.7704	1.6126e-05	0.022342	
409.38	0.44497	0.13455	7.4323	493.69	526.10	2.0710	0.94660	1.0415	186.10	7.7417	1.6144e-05	0.022380	
409.85	0.44497	0.13437	7.4419	494.14	526.59	2.0722	0.94730	1.0421	186.22	7.7131	1.6162e-05	0.022417	
410.33	0.44497	0.13420	7.4515	494.59	527.09	2.0734	0.94801	1.0428	186.34	7.6847	1.6180e-05	0.022455	
410.80	0.44497	0.13403	7.4610	495.05	527.58	2.0746	0.94872	1.0434	186.46	7.6565	1.6199e-05	0.022493	
411.28	0.44497	0.13386	7.4706	495.50	528.08	2.0758	0.94942	1.0441	186.58	7.6284	1.6217e-05	0.022531	
411.75	0.44497	0.13369	7.4802	495.96	528.58	2.0770	0.95013	1.0447	186.70	7.6004	1.6235e-05	0.022569	
412.23	0.44497	0.13352	7.4898	496.41	529.07	2.0782	0.95083	1.0454	186.82	7.5726	1.6253e-05	0.022607	
412.70	0.44497	0.13335	7.4993	496.87	529.57	2.0794	0.95154	1.0460	186.94	7.5449	1.6271e-05	0.022645	
413.18	0.44497	0.13318	7.5089	497.32	530.07	2.0806	0.95225	1.0467	187.06	7.5174	1.6289e-05	0.022683	
413.65	0.44497	0.13301	7.5184	497.78	530.57	2.0818	0.95295	1.0473	187.18	7.4900	1.6307e-05	0.022720	
414.13	0.44497	0.13284	7.5280	498.23	531.06	2.0830	0.95366	1.0480	187.30	7.4628	1.6325e-05	0.022758	
414.60	0.44497	0.13267	7.5375	498.69	531.56	2.0842	0.95437	1.0486	187.42	7.4357	1.6343e-05	0.022796	
415.08	0.44497	0.13250	7.5471	499.15	532.06	2.0854	0.95507	1.0493	187.54	7.4087	1.6361e-05	0.022834	
415.55	0.44497	0.13233	7.5566	499.60	532.56	2.0866	0.95578	1.0499	187.66	7.3819	1.6380e-05	0.022872	
416.03	0.44497	0.13217	7.5662	500.06	533.06	2.0878	0.95648	1.0506	187.78	7.3553	1.6398e-05	0.022910	
416.50	0.44497	0.13200	7.5757	500.52	533.56	2.0890	0.95719	1.0512	187.90	7.3287	1.6416e-05	0.022948	
416.98	0.44497	0.13183	7.5853	500.98	534.06	2.0902	0.95790	1.0519	188.02	7.3023	1.6434e-05	0.022986	
417.46	0.44497	0.13167	7.5948	501.44	534.56	2.0914	0.95860	1.0525	188.14	7.2761	1.6452e-05	0.023024	
417.93	0.44497	0.13150	7.6043	501.89	535.06	2.0926	0.95931	1.0532	188.26	7.2500	1.6470e-05	0.023061	
418.41	0.44497	0.13134	7.6139	502.35	535.56	2.0938	0.96001	1.0538	188.38	7.2240	1.6488e-05	0.023099	
418.88	0.44497	0.13117	7.6234	502.81	536.06	2.0950	0.96072	1.0545	188.49	7.1981	1.6506e-05	0.023137	
419.36	0.44497	0.13101	7.6329	503.27	536.56	2.0962	0.96143	1.0552	188.61	7.1724	1.6524e-05	0.023175	
419.83	0.44497	0.13085	7.6425	503.73	537.06	2.0974	0.96213	1.0558	188.73	7.1468	1.6542e-05	0.023213	
420.31	0.44497	0.13069	7.6520	504.19	537.56	2.0986	0.96284	1.0565	188.85	7.1213	1.6560e-05	0.023251	
420.78	0.44497	0.13052	7.6615	504.65	538.07	2.0998	0.96354	1.0571	188.97	7.0960	1.6578e-05	0.023289	
421.26	0.44497	0.13036	7.6710	505.11	538.57	2.1010	0.96425	1.0578	189.08	7.0708	1.6596e-05	0.023327	
421.73	0.44497	0.13020	7.6805	505.58	539.07	2.1022	0.96495	1.0584	189.20	7.0457	1.6614e-05	0.023365	
422.21	0.44497	0.13004	7.6900	506.04	539.57	2.1034	0.96566	1.0591	189.32	7.0208	1.6632e-05	0.023402	
422.68	0.44497	0.12988	7.6995	506.50	540.08	2.1046	0.96636	1.0597	189.44	6.9960	1.6650e-05	0.023440	
423.16	0.44497	0.12972	7.7091	506.96	540.58	2.1058	0.96707	1.0604	189.55	6.9713	1.6668e-05	0.023478	
423.63	0.44497	0.12956	7.7186	507.43	541.09	2.1070	0.96778	1.0611	189.67	6.9467	1.6686e-05	0.023516	
424.11	0.44497	0.12940	7.7281	507.89	541.59	2.1082	0.96848	1.0617	189.79	6.9223	1.6704e-05	0.023554	
424.58	0.44497	0.12924	7.7376	508.35	542.10	2.1093	0.96919	1.0624	189.91	6.8980	1.6722e-05	0.023592	
425.06	0.44497	0.12908	7.7471	508.81	542.60	2.1105	0.96989	1.0630	190.02	6.8738	1.6740e-05	0.023630	
425.53	0.44497	0.12892	7.7565	509.28	543.11	2.1117	0.97060	1.0637	190.14	6.8497	1.6758e-05	0.023668	
426.01	0.44497	0.12877	7.7660	509.74	543.61	2.1129	0.97130	1.0643	190.26	6.8258	1.6776e-05	0.023706	
426.49	0.44497	0.12861	7.7755	510.21	544.12	2.1141	0.97201	1.0650	190.37	6.8019	1.6794e-05	0.023743	
426.96	0.44497	0.12845	7.7850	510.67	544.62	2.1153	0.97271	1.0657	190.49	6.7782	1.6812e-05	0.023781	
427.44	0.44497	0.12830	7.7945	511.14	545.13	2.1165	0.97342	1.0663	190.61	6.7546	1.6830e-05	0.023819	
427.91	0.44497	0.12814	7.8040	511.60	545.64	2.1177	0.97412	1.0670	190.72	6.7312	1.6848e-05	0.023857	
428.39	0.44497	0.12798	7.8135	512.07	546.14	2.1188	0.97482	1.0676	190.84	6.7078	1.6866e-05	0.023895	
428.86	0.44497	0.12783	7.8229	512.54	546.65	2.1200	0.97553	1.0683	190.95	6.6846	1.6884e-05	0.023933	
429.34	0.44497	0.12767	7.8324	513.00	547.16	2.1212	0.97623	1.0690	191.07	6.6614	1.6902e-05	0.023971	
429.81	0.44497	0.12752	7.8419	513.47	547.67	2.1224	0.97694	1.0696	191.18	6.6384	1.6920e-05	0.024009	
430.29	0.44497	0.12737	7.8514	513.94	548.18	2.1236	0.97764	1.0703	191.30	6.6155	1.6938e-05	0.024047	
430.76	0.44497	0.12721	7.8608	514.40	548.69	2.1248	0.97835	1.0709	191.42	6.5927	1.6956e-05	0.024085	
431.24	0.44497	0.12706	7.8703	514.87	549.19	2.1259	0.97905	1.0716	191.53	6.5701	1.6974e-05	0.024123	
431.71	0.44497	0.12691	7.8798	515.34	549.70	2.1271	0.97975	1.0723	191.65	6.5475	1.6992e-05	0.024160	
432.19	0.44497	0.12676	7.8892	515.81	550.21	2.1283	0.98046	1.0729	191.76	6.5251	1.7010e-05	0.024198	
432.66	0.44497	0.12660	7.8987	516.28	550.72	2.1295	0.98116	1.0736	191.88	6.5027	1.7028e-05	0.024236	
433.14	0.44497	0.12645	7.9081	516.75	551.23	2.1307	0.98187	1.0742	191.99	6.4805	1.7046e-05	0.024274	
433.61	0.44497	0.12630	7.9176	517.22	551.75	2.1318	0.98257	1.0749	192.11	6.4584	1.7064e-05	0.024312	
434.09	0.44497	0.12615	7.9270	517.69	552.26	2.1330	0.98327	1.0756	192.22	6.4364	1.7082e-05	0.024350	
434.56	0.44497	0.12600	7.9365	518.16	552.77	2.1342	0.98398	1.0762	192.34	6.4145	1.7100e-05	0.024388	
435.04	0.44497	0.12585	7.9459	518.63	553.28	2.1354	0.98468	1.0769	192.45	6.3927	1.7117e-05	0.024426	
435.51	0.44497	0.12570	7.9554	519.10	553.79	2.1365	0.98538	1.0776	192.56	6.3710	1.7135e-05	0.024464	
435.99	0.44497	0.12555	7.9648	519.57	554.30	2.1377	0.98609	1.0782	192.68	6.3494	1.7153e-05	0.024502	
436.47	0.44497	0.12540	7.9743	520.04	554.82	2.1389	0.98679	1.0789	192.79	6.3279	1.7171e-05	0.024540	
436.94	0.44497	0.12525	7.9837	520.51	555.33	2.1401	0.98749	1.0795	192.91	6.3065	1.7189e-05	0.024577	
437.42	0.44497	0.12511	7.9932	520.98	555.84	2.1412	0.98820	1.0802	193.02	6.2852	1.7207e-05	0.024615	
437.89	0.44497	0.12496	8.0026	521.46	556.36	2.1424	0.98890	1.0809	193.13	6.2641	1.7225e-05	0.024653	
438.37	0.44497	0.12481	8.0120	521.93	556.87	2.1436	0.98960	1.0815	193.25	6.2430	1.7243e-05	0.024691	
438.84	0.44497	0.12467	8.0215	522.40	557.38	2.1448	0.99030	1.0822	193.36	6.2220	1.7261e-05	0.024729	
439.32	0.44497	0.12452	8.0309	522.87	557.90	2.1459	0.99101	1.0829	193.48	6.2012	1.7279e-05	0.024767	
439.79	0.44497	0.12437	8.0403	523.35	558.41	2.1471	0.99171	1.0835	193.59	6.1804	1.7296e-05	0.024805	
440.27	0.44497	0.12423	8.0497	523.82	558.93	2.1483	0.99241	1.0842	193.70	6.1597	1.7314e-05	0.024843	
440.74	0.44497	0.12408	8.0592	524.30	559.44	2.1494	0.99311	1.0848	193.81	6.1392	1.7332e-05	0.024881	
441.22	0.44497	0.12394	8.0686	524.77	559.96	2.1506	0.99381	1.0855	193.93	6.1187	1.7350e-05	0.024919	
441.69	0.44497	0.12379	8.0780	525.25	560.47	2.1518	0.99452	1.0862	194.04	6.0983	1.7368e-05	0.024957	
442.17	0.44497	0.12365	8.0874	525.72	560.99	2.1529	0.99522	1.0868	194.15	6.0781	1.7386e-05	0.024994	
442.64	0.44497	0.12350	8.0968	526.20	561.51	2.1541	0.99592	1.0875	194.27	6.0579	1.7404e-05	0.025032	
443.12	0.44497	0.12336	8.1063	526.67	562.02	2.1553	0.99662	1.0882	194.38	6.0378	1.7422e-05	0.025070	
443.59	0.44497	0.12322	8.1157	527.15	562.54	2.1565	0.99732	1.0888	194.49	6.0178	1.7439e-05	0.025108	
444.07	0.44497	0.12308	8.1251	527.63	563.06	2.1576	0.99802	1.0895	194.60	5.9979	1.7457e-05	0.025146	
444.54	0.44497	0.12293	8.1345	528.10	563.58	2.1588	0.99873	1.0902	194.72	5.9781	1.7475e-05	0.025184	
445.02	0.44497	0.12279	8.1439	528.58	564.10	2.1599	0.99943	1.0908	194.83	5.9584	1.7493e-05	0.025222	
445.50	0.44497	0.12265	8.1533	529.06	564.61	2.1611	1.0001	1.0915	194.94	5.9388	1.7511e-05	0.025260	
445.97	0.44497	0.12251	8.1627	529.54	565.13	2.1623	1.0008	1.0922	195.05	5.9193	1.7529e-05	0.025298	
446.45	0.44497	0.12237	8.1721	530.01	565.65	2.1634	1.0015	1.0928	195.16	5.8999	1.7547e-05	0.025336	
446.92	0.44497	0.12223	8.1815	530.49	566.17	2.1646	1.0022	1.0935	195.28	5.8805	1.7564e-05	0.025374	
447.40	0.44497	0.12209	8.1909	530.97	566.69	2.1658	1.0029	1.0941	195.39	5.8613	1.7582e-05	0.025412	
447.87	0.44497	0.12195	8.2003	531.45	567.21	2.1669	1.0036	1.0948	195.50	5.8421	1.7600e-05	0.025450	
448.35	0.44497	0.12181	8.2097	531.93	567.73	2.1681	1.0043	1.0955	195.61	5.8230	1.7618e-05	0.025487	
448.82	0.44497	0.12167	8.2191	532.41	568.25	2.1693	1.0050	1.0961	195.72	5.8041	1.7636e-05	0.025525	
449.30	0.44497	0.12153	8.2285	532.89	568.77	2.1704	1.0057	1.0968	195.83	5.7852	1.7654e-05	0.025563	
449.77	0.44497	0.12139	8.2379	533.37	569.30	2.1716	1.0064	1.0975	195.95	5.7664	1.7671e-05	0.025601	
450.25	0.44497	0.12125	8.2472	533.85	569.82	2.1727	1.0071	1.0981	196.06	5.7477	1.7689e-05	0.025639	
450.72	0.44497	0.12111	8.2566	534.33	570.34	2.1739	1.0078	1.0988	196.17	5.7290	1.7707e-05	0.025677	
451.20	0.44497	0.12098	8.2660	534.81	570.86	2.1750	1.0085	1.0995	196.28	5.7105	1.7725e-05	0.025715	
451.67	0.44497	0.12084	8.2754	535.30	571.38	2.1762	1.0092	1.1001	196.39	5.6920	1.7743e-05	0.025753	
452.15	0.44497	0.12070	8.2848	535.78	571.91	2.1774	1.0099	1.1008	196.50	5.6737	1.7760e-05	0.025791	
452.62	0.44497	0.12057	8.2941	536.26	572.43	2.1785	1.0106	1.1015	196.61	5.6554	1.7778e-05	0.025829	
453.10	0.44497	0.12043	8.3035	536.74	572.95	2.1797	1.0113	1.1021	196.72	5.6372	1.7796e-05	0.025867	
453.57	0.44497	0.12030	8.3129	537.23	573.48	2.1808	1.0120	1.1028	196.83	5.6191	1.7814e-05	0.025905	
454.05	0.44497	0.12016	8.3223	537.71	574.00	2.1820	1.0127	1.1035	196.94	5.6010	1.7832e-05	0.025943	
454.52	0.44497	0.12002	8.3316	538.19	574.53	2.1831	1.0134	1.1041	197.05	5.5831	1.7849e-05	0.025981	

];
t=data(:,1);
s=data(:,7);
h=data(:,6);
















